Press[Pa]	        thm[K]     rt[kg\kg]      u[m\s]       v[m\s]	omega[Pa\s]       ug[m\s]       vg[m\s]
101500.000000    	298.723604   2.132555E-02      7.248140    -4.926770    -0.015370    7.248140    -4.926770
99000.000000    	300.859671   2.132555E-02      7.248140    -4.926770    -0.015370    7.248140    -4.926770
96500.000000    	301.287204   2.043445E-02      9.898490    -4.746140    -0.044531    9.898490    -4.746140
94000.000000    	302.252302   1.967766E-02      11.476300    -4.559530    -0.069190    11.476300    -4.559530
91500.000000    	303.445413   1.862447E-02      13.255700    -4.743340    -0.087953    13.255700    -4.743340
89000.000000    	304.543665   1.749950E-02      15.391000    -4.699860    -0.100666    15.391000    -4.699860
86500.000000    	305.818579   1.623263E-02      16.708700    -4.683230    -0.107620    16.708700    -4.683230
84000.000000    	307.013849   1.516383E-02      17.795799    -4.959320    -0.110672    17.795799    -4.959320
81500.000000    	308.018478   1.435598E-02      17.753201    -5.146950    -0.113461    17.753201    -5.146950
79000.000000    	309.163686   1.301378E-02      17.352600    -5.685290    -0.119351    17.352600    -5.685290
76500.000000    	310.490727   1.171980E-02      18.302000    -6.292760    -0.129277    18.302000    -6.292760
74000.000000    	312.178156   1.054308E-02      18.704800    -7.466660    -0.142353    18.704800    -7.466660
71500.000000    	313.760639   9.333869E-03      19.550200    -8.343810    -0.158174    19.550200    -8.343810
69000.000000    	315.315188   8.705076E-03      19.016399    -8.049520    -0.175426    19.016399    -8.049520
66500.000000    	316.971976   8.182280E-03      17.777800    -7.893540    -0.192168    17.777800    -7.893540
64000.000000    	318.447133   7.878802E-03      16.542299    -8.003820    -0.207722    16.542299    -8.003820
61500.000000    	320.163934   7.403094E-03      15.613800    -8.101200    -0.221992    15.613800    -8.101200
59000.000000    	322.080448   6.915966E-03      14.675100    -9.630940    -0.235100    14.675100    -9.630940
56500.000000    	323.702040   6.471987E-03      13.123900    -10.030700    -0.247181    13.123900    -10.030700
54000.000000    	325.804013   6.050606E-03      12.018100    -10.593400    -0.258051    12.018100    -10.593400
51500.000000    	327.854282   5.508068E-03      10.941500    -11.336900    -0.267714    10.941500    -11.336900
49000.000000    	329.899193   4.874851E-03      9.786630    -11.628200    -0.276233    9.786630    -11.628200
46500.000000    	332.028415   4.282167E-03      8.938650    -10.669900    -0.282308    8.938650    -10.669900
44000.000000    	334.442307   3.737541E-03      9.075400    -9.387080    -0.284714    9.075400    -9.387080
41500.000000    	336.648572   3.126541E-03      8.665860    -8.972290    -0.283554    8.665860    -8.972290
39000.000000    	338.857849   2.683896E-03      7.974930    -7.944640    -0.280360    7.974930    -7.944640
36500.000000    	341.269032   2.219002E-03      6.009070    -7.035790    -0.278320    6.009070    -7.035790
34000.000000    	343.439649   1.697514E-03      5.470630    -4.655330    -0.279801    5.470630    -4.655330
31500.000000    	345.517198   1.243936E-03      4.433320    -3.588090    -0.285208    4.433320    -3.588090
29000.000000    	347.521959   8.281202E-04      3.190910    -2.142040    -0.293733    3.190910    -2.142040
26500.000000    	349.474938   5.283846E-04      1.848100    0.519225    -0.302720    1.848100    0.519225
24000.000000    	351.077629   3.328188E-04      0.902443    0.541399    -0.303717    0.902443    0.541399
21500.000000    	352.531213   1.819139E-04      0.400931    1.407070    -0.280232    0.400931    1.407070
19000.000000    	353.764219   8.107607E-05      -2.545330    4.191920    -0.226577    -2.545330    4.191920
16500.000000    	354.441467   3.184518E-05      -6.538250    4.549170    -0.153373    -6.538250    4.549170
14000.000000    	355.517759   1.089582E-05      -7.733860    -1.443050    -0.078032    -7.733860    -1.443050
11500.000000    	358.372939   2.975682E-06      -9.631390    -2.940910    -0.025767    -9.631390    -2.940910
9000.000000    	369.444122   1.061120E-06      -22.521700    8.558639    0.000001    -22.521700    8.558639
6500.000000    	425.472277   5.145155E-06      -18.793699    1.436200    0.000000    -18.793699    1.436200
4000.000000    	523.255533   8.457050E-06      -23.899099    -2.125450    0.000000    -23.899099    -2.125450
5.790000    	954.244626   3.246470E-06      -23.899099    -2.125450    0.000000    -23.899099    -2.125450
0.030000    	4115.586912   3.260000E-06      -23.899099    -2.125450    0.000000    -23.899099    -2.125450
